mz	rt	intensity
53.03806	6.9	1691
58.06470	1.3	5274
61.03925	1.9	10738
61.03934	1.4	29448
61.03937	1.6	15199
61.03953	1.3	89650
68.98171	1.1	1071
72.08047	1.5	5351
76.07541	1.3	13610
77.03753	6.9	2027
81.03347	4.6	2028
84.04407	2.2	2490
84.95943	1.1	5932
86.05952	2.2	4981
86.06005	3.3	9319
86.09573	3.0	1508
86.09622	2.0	8086
86.99225	1.1	1455
94.06403	1.4	7241
94.06456	1.5	4884
94.06463	1.3	8011
94.06473	1.7	1913
95.01250	4.4	10842
95.06059	1.5	2078
96.04400	2.3	2218
96.04444	2.1	3050
96.92133	1.2	1086
102.09038	1.8	1727
102.12648	22.0	3034
102.12699	21.5	3373
102.12705	6.7	4308
102.12710	18.3	4040
102.12722	6.8	4495
102.12724	7.2	3722
102.12731	6.6	3065
102.12734	7.5	3277
102.12740	7.3	6603
102.12838	7.7	1876
102.12937	21.4	3405
102.96996	1.1	2506
104.07006	1.2	1341
104.10699	1.2	19541
105.03297	7.0	7538
105.03321	6.9	110475
106.03636	7.0	10266
108.07992	1.9	1840
108.08018	1.8	3554
109.02786	6.7	2714
110.05937	1.6	5039
110.05963	2.1	1967
110.05992	1.6	54043
110.07111	1.2	2932
111.06315	1.6	4014
112.03882	2.2	1690
112.03910	2.1	10284
112.05029	3.1	2092
112.08651	3.1	2933
112.89536	5.1	3089
112.89542	1.2	11519
113.13154	23.8	4074
114.06549	1.7	3399
114.06562	1.9	2682
114.06616	1.4	12981
114.06628	1.3	510438
114.89297	1.2	4914
115.03893	2.5	1502
115.04985	1.8	4065
115.06908	1.3	43145
115.07448	6.0	1587
116.07028	2.5	12166
116.10576	1.5	1903
116.10633	1.4	26620
116.10659	1.2	1800
116.10669	2.5	3997
116.10672	2.7	16575
116.10710	2.8	2387
117.10933	2.7	1678
118.06113	1.2	8687
118.08585	1.7	1537
118.08599	1.2	53560
119.01820	1.1	1659
119.08943	1.2	4250
120.04379	5.3	4868
120.06500	1.5	10169
120.06546	1.2	3369
120.08069	4.4	23379
121.02783	7.8	11682
121.02790	4.8	11955
121.02804	5.3	9967
121.03926	2.5	7988
121.06447	3.0	3144
121.07126	1.3	3146
121.08358	4.4	2609
122.09518	3.1	1201
122.09605	2.7	5730
122.09628	3.1	1360
122.92388	1.1	3796
123.04374	6.1	2880
123.05510	1.8	2925
123.05619	6.7	5408
123.08900	3.7	1382
123.09048	3.8	2453
123.09050	2.9	2664
123.09082	3.6	2534
123.09122	3.5	2619
123.09123	3.4	2999
123.09123	3.3	2999
123.09131	2.8	1337
123.09138	3.2	2208
123.09192	2.8	1227
123.09239	3.2	1687
123.09279	3.0	1248
124.03926	4.4	16939
124.07551	2.2	11237
124.07562	2.2	2507
124.08550	1.6	1094
124.08635	1.2	10779
125.04239	4.4	1557
125.09606	12.3	2628
125.10660	5.3	5122
126.02116	1.2	2903
126.05394	4.8	1192
126.06560	1.5	2866
126.09092	5.3	12558
126.09105	2.3	2034
127.03839	6.2	1964
127.03848	3.9	3016
127.03884	2.8	15800
127.03904	4.1	2149
128.01889	1.1	1028
128.06972	3.3	2240
129.01760	2.0	5080
129.05417	4.8	9606
129.05430	1.3	1783
129.05435	4.0	7632
129.05450	6.2	1467
129.06496	7.1	8005
129.06542	1.3	12798
129.06595	7.1	9875
129.10199	1.7	6441
130.04951	2.2	16457
130.04954	7.1	38673
130.04959	3.5	7969
130.04968	1.2	10221
130.06420	12.0	2773
130.06453	10.8	5812
130.08577	1.1	1897
131.04888	10.5	10637
131.05262	2.2	1228
131.11744	1.6	11810
132.04371	5.3	4079
132.04373	5.4	1629
132.08025	3.3	3083
132.10092	2.8	2517
132.10180	3.0	3978
134.05968	5.2	24584
135.04343	8.1	5961
135.04374	10.1	3328
135.05474	6.0	4983
135.06254	5.2	2916
135.08054	11.2	2097
136.03883	3.1	7479
136.07548	2.6	4046
136.92118	1.1	1280
137.04483	4.7	1031
137.04564	2.4	17652
137.05877	3.8	1277
137.07069	1.3	22216
138.04771	2.4	1158
138.05459	1.3	38508
138.07325	1.3	1810
138.08992	1.5	1315
138.09049	3.4	1197
138.09100	3.0	2545
139.00225	2.0	4354
139.00270	2.2	1658
139.04975	2.1	6888
139.04995	2.5	3916
139.05708	1.3	6665
139.14740	16.5	3228
140.06934	3.6	3475
140.06956	1.5	1575
141.05412	4.4	2570
141.06526	1.8	5145
141.06545	1.5	13568
141.06550	1.4	14009
142.08587	1.9	14979
143.06966	6.0	5098
143.11714	5.3	3415
143.11740	2.1	4802
143.11758	1.8	25474
143.11806	1.9	1251
144.06531	2.9	3592
144.10132	1.4	230273
144.10141	1.5	5403
144.10167	1.9	17931
144.10180	4.8	1748
144.10183	1.8	35880
144.10230	1.9	1632
144.12101	1.8	1863
145.04919	2.7	1517
145.04925	2.3	2096
145.04929	3.0	5923
145.10436	1.4	17151
145.10519	1.8	3243
145.13290	2.1	2839
146.08080	2.4	8238
146.08108	1.3	33697
146.08119	3.3	6843
146.09235	1.9	19428
146.11673	20.1	6040
147.04748	3.3	3901
147.07478	7.0	2383
147.07614	1.2	8020
147.11145	1.1	2693
148.03853	3.8	1393
149.02269	23.9	13020
149.02272	19.6	11108
149.02277	6.2	1545
149.02290	19.5	24234
149.02353	19.7	3933
149.09554	10.0	2560
150.02613	19.5	2705
150.05417	5.4	1938
150.05772	2.2	4134
150.07670	1.7	1469
150.07698	2.3	2201
150.09066	3.6	6074
150.09094	3.7	1417
150.09128	1.7	1587
151.03849	5.8	10326
151.06043	3.3	1703
151.06131	4.1	11893
151.08619	5.2	1957
151.14354	1.3	13256
152.02166	1.3	13223
152.03407	4.4	20427
152.10705	4.8	2440
153.03672	4.4	1954
153.04036	2.6	3882
153.06585	3.1	34280
153.06614	3.3	65040
153.12690	12.6	2035
154.05007	3.1	14775
154.05085	4.6	3081
154.06062	1.9	2108
154.06784	3.1	1944
154.06884	3.3	5997
154.09652	1.8	1614
154.93120	1.1	1605
155.04509	1.8	4146
155.08101	3.3	3197
156.06475	2.9	1667
156.07654	1.2	13238
156.07685	2.5	2633
156.10081	7.8	2260
156.10124	8.9	2122
156.11275	3.2	1976
157.01163	1.9	1784
157.04867	10.0	3177
157.06012	1.4	8947
158.02605	5.6	3368
158.04442	1.5	2251
158.08069	5.8	1865
158.08087	2.8	1661
158.11743	1.8	7625
159.02761	16.5	2440
159.14864	3.0	1695
159.14900	1.1	7179
160.09612	3.2	3041
160.09626	4.6	2015
160.09640	6.4	1758
160.09668	1.3	20833
160.10809	2.7	19500
160.10817	2.5	3193
160.13309	2.2	10947
160.13310	1.7	104570
161.02993	1.1	2180
161.09969	1.3	2086
161.11059	2.8	1285
161.13614	1.7	11909
162.05408	6.9	9782
162.05437	7.4	2190
162.07570	1.7	2125
162.07600	2.3	1696
162.11149	1.5	1495
162.11254	1.3	69184
163.04193	1.7	3142
163.05982	2.7	1734
163.05988	2.8	1960
163.11561	1.3	5595
163.12308	2.7	6219
164.07343	3.3	2374
164.92647	1.1	1561
164.99510	2.9	1900
165.05410	2.6	6223
165.05439	6.0	1284
165.07521	1.2	2271
166.04893	6.7	2588
166.04922	3.5	2987
166.07179	4.1	3428
166.07205	2.8	2038
166.07223	3.2	2129
166.07246	2.7	41590
166.08560	1.7	1438
166.08632	4.4	15960
166.12108	6.6	2255
166.12148	6.8	2914
167.03336	23.8	3311
167.05619	3.7	45039
167.05634	4.1	16657
167.07451	2.7	2651
167.08952	4.4	10087
167.09216	1.8	2620
167.10634	10.0	5625
168.00546	3.5	2562
168.05892	3.7	3244
168.05945	4.1	2195
168.06314	3.3	3550
168.06425	1.6	1540
168.06532	2.7	1720
168.09277	4.4	1609
168.10020	4.4	1760
169.03562	2.2	115599
169.04958	4.9	2627
169.09697	4.3	9848
169.13273	1.6	5294
170.03798	2.2	6216
170.04485	4.4	60606
170.06010	10.1	17946
170.09259	1.2	80721
170.09273	3.0	2588
170.98085	1.1	1108
171.04763	4.4	4139
171.06482	6.2	1388
171.07565	1.4	7098
171.08770	3.0	1211
171.09363	1.1	1563
171.09538	1.2	5716
171.10105	12.3	3728
171.11314	2.3	1608
172.94228	1.1	1404
173.04371	2.4	1947
173.09132	1.7	1438
173.12778	4.1	1893
173.16432	2.5	2092
174.08817	1.7	3063
174.09069	4.6	4115
174.09080	4.5	1811
174.09091	4.6	2283
174.11184	7.8	2110
174.12379	3.0	37584
174.12406	3.2	73984
174.14767	3.5	1699
175.00192	2.4	1511
175.02349	1.9	8244
175.04667	3.1	1926
175.07109	1.3	1967
175.07838	7.8	3092
175.12263	5.4	1714
175.12612	3.2	5434
175.12623	2.9	3351
175.14418	1.2	2754
176.06568	1.3	2107
176.06988	7.9	3544
176.07036	10.8	8882
176.07051	4.6	5148
176.10229	1.6	4239
177.00708	1.1	2012
177.03888	1.6	1503
177.03907	16.5	5344
177.05418	8.0	7209
177.10187	3.6	2553
177.10200	3.5	18770
177.13872	1.2	2557
178.05900	1.2	1814
178.08910	4.8	1908
179.04425	1.8	3257
179.06880	21.6	3565
179.11719	8.0	3058
179.11775	3.3	39693
179.11781	3.0	3463
180.06471	7.0	4821
180.06540	6.9	247060
180.08769	5.2	8938
180.10123	3.6	1797
180.10164	2.5	3680
180.12050	3.3	4571
180.90268	1.2	3374
181.05274	1.7	9337
181.06795	6.9	24394
181.07050	6.1	68902
181.07056	2.1	1626
181.07163	6.4	5979
181.07174	1.9	2229
181.07188	2.1	4162
181.07219	5.1	60521
181.08621	11.2	6577
182.06526	2.7	1315
182.06694	3.7	4323
182.07067	6.9	1681
182.07287	6.1	7337
182.07476	5.1	6489
182.08114	2.6	11489
182.08119	2.3	7839
183.05102	3.5	4211
183.05127	3.9	18052
183.07607	2.2	2602
183.08394	2.6	1953
183.08585	1.3	6814
183.11231	3.8	5555
184.03713	3.3	10357
184.05954	6.7	6983
184.06015	4.5	5118
184.06022	3.5	10384
184.09603	8.9	2136
185.06675	2.7	3925
185.09130	3.0	1868
185.09190	3.1	2762
185.11766	10.0	3025
185.12853	5.3	98412
185.95843	1.2	2757
186.07562	2.8	1872
186.11220	9.6	5707
186.13097	5.3	12851
188.01402	2.2	2701
188.07027	5.7	16993
188.10241	1.9	13045
188.16366	2.5	2450
188.17524	1.2	3413
189.06836	5.7	8389
189.07526	6.2	2985
189.11176	12.3	5086
189.12207	1.5	4654
189.12291	1.8	7975
189.15960	1.1	11927
190.04952	6.3	7663
190.11797	2.3	2587
190.16236	1.1	1225
190.91040	1.1	999
191.02106	3.1	5207
191.05566	2.4	2226
191.06534	1.2	3116
191.06906	9.9	3853
192.02614	4.4	2822
192.06476	6.4	7700
192.07458	1.2	3673
192.10486	7.8	3206
193.03346	1.5	2094
193.03367	2.0	12185
193.09684	2.6	6797
193.09723	3.4	5725
193.15439	1.3	2556
194.03189	1.2	1342
194.06504	8.4	8207
194.08008	7.8	1828
194.08117	8.7	1824
194.10281	4.5	2061
194.99590	2.5	1502
195.06516	5.5	3277
195.06520	6.5	3010
195.08761	7.6	53750
195.11156	5.7	4324
195.11194	9.8	1720
196.05992	7.8	2247
196.06015	5.3	11508
196.06017	4.8	4280
196.08997	7.6	4766
196.09678	2.2	1842
196.87645	1.2	4290
197.06669	5.0	5263
197.06670	6.0	26987
197.12759	7.1	4289
197.12805	7.3	5695
198.05242	4.7	4154
198.05344	3.2	1430
198.06905	5.9	3160
198.08625	1.5	4328
198.93981	1.1	4210
199.08199	2.1	3107
199.08212	3.0	1960
199.08235	2.5	1877
199.10721	3.2	3256
199.10723	4.4	2522
199.10733	3.9	3171
200.05489	4.1	1883
200.09171	3.7	3085
200.10638	7.5	1968
200.19978	18.0	6939
201.05204	4.7	1674
201.08754	2.3	1141
201.15904	1.6	3393
202.04668	6.9	10168
202.07076	7.8	1808
202.11866	2.5	21720
202.14287	2.7	1855
202.14358	14.1	2674
203.04167	6.0	2312
203.08135	3.4	1484
203.09076	10.0	2219
203.10993	12.2	2333
203.12156	2.5	2749
203.12164	2.3	2434
203.12186	2.3	1339
203.12690	10.0	2184
203.13844	1.7	12805
203.13899	1.9	59395
203.14963	1.4	26017
204.02781	2.7	1805
204.12295	1.9	4769
204.12329	1.8	176338
204.13375	2.5	2018
204.13417	2.7	14488
204.14170	1.9	6061
204.15350	1.5	2001
205.06805	1.2	5070
205.08352	19.7	3063
205.08508	19.6	7832
205.08557	19.5	18910
205.09665	5.7	10446
205.12601	1.8	19055
205.13642	2.7	1705
205.15393	1.1	2021
206.04754	7.4	4294
206.08024	10.5	3397
206.08705	19.5	3529
206.99075	2.2	2044
207.09064	5.7	3388
207.10978	5.3	5058
208.00055	4.4	11256
209.01104	3.9	3518
209.05525	1.8	12815
209.06631	2.7	1613
209.06719	2.8	1445
209.10222	2.7	1712
210.05878	1.8	1871
210.06054	1.5	1464
210.06067	2.0	16942
211.05687	6.2	1950
211.07092	4.0	2332
211.08201	6.8	3184
211.09342	12.3	2410
211.14358	9.2	2512
211.14438	9.4	7467
211.17943	20.1	4528
212.03050	2.9	1841
212.10238	1.6	35983
212.10245	1.5	7930
212.84967	1.2	2261
213.09763	4.9	1738
213.10441	1.6	5248
214.04741	2.8	1530
214.14428	3.3	1827
214.91775	1.1	3835
215.13847	2.2	1557
215.13889	2.3	7511
215.13932	2.5	1826
216.04494	4.8	2476
216.95061	1.1	4130
217.07427	3.3	2421
217.11776	3.8	2771
217.11810	3.2	11246
217.12904	1.9	20151
217.15473	1.7	10744
218.02083	6.9	40404
218.08072	2.8	5825
218.13878	3.0	32833
218.15731	1.8	1309
218.94520	4.0	2025
218.98338	1.1	2493
219.00860	1.7	3055
219.01677	6.0	3792
219.02405	6.9	4174
219.04775	1.2	2525
219.14145	3.0	4594
220.01868	6.9	3919
220.06298	3.5	4462
220.06345	3.1	2292
220.11777	5.0	15762
220.11833	2.9	2186
220.11946	2.6	17270
220.11976	2.4	8244
220.12886	2.5	1559
220.13724	12.3	2600
221.04173	1.3	2775
221.09157	3.4	1887
221.11980	5.0	1784
221.12089	2.6	3048
222.01613	4.5	2883
222.01618	3.5	4484
222.07964	3.4	1585
222.99975	7.8	2141
223.07443	7.4	11117
223.08396	5.3	26579
224.07698	7.4	1682
224.08613	5.3	4307
225.00601	2.3	1511
225.06083	7.3	3129
225.10868	10.0	2654
226.07043	5.8	3259
226.08150	2.2	2144
226.12779	2.8	4225
226.14327	4.0	1788
226.97665	7.4	2384
227.03152	6.2	5664
227.04310	1.8	2665
227.06821	12.3	1864
227.07700	2.7	9217
227.07893	1.8	1827
227.10264	4.2	5769
227.12513	1.3	36850
227.17499	2.0	3287
228.08677	2.2	4549
228.19533	16.1	5352
229.11794	1.6	1518
229.11813	1.5	42691
229.15475	1.9	137236
229.15482	2.9	32382
229.15505	2.3	71473
229.15521	2.8	23607
229.15535	2.8	16315
230.01122	3.6	1197
230.12056	1.5	5053
230.12600	2.3	2006
230.13800	3.5	3454
230.15716	1.9	15619
230.15768	2.1	7293
230.15768	2.3	9034
230.15802	3.1	6180
230.18533	2.3	1576
230.98898	1.5	1660
230.98983	2.0	15755
231.13346	4.3	3019
231.14050	15.3	4572
231.14515	2.5	9035
231.16956	1.6	2508
231.18899	2.6	1737
231.20622	2.7	12881
232.15391	4.7	3260
232.15414	4.5	27836
232.15445	4.5	249501
232.20961	2.7	1672
232.92818	1.1	3634
233.15753	4.5	20534
233.99281	5.8	1083
234.01532	4.8	2837
234.01643	7.8	1530
234.15857	4.5	2863
234.96107	1.1	3938
235.02033	1.2	1763
235.11868	2.6	8075
235.96163	1.1	1404
237.12224	5.4	5711
238.15526	3.0	14275
239.03034	4.7	1736
239.07870	3.8	5716
239.10023	3.2	1888
239.13881	10.1	3478
239.13902	10.5	5794
239.15783	3.0	2834
240.00163	6.9	1710
240.10855	2.8	2491
241.08332	10.0	6085
241.12938	1.2	21584
241.15377	2.1	2180
241.15454	2.9	7658
241.15463	2.7	22614
241.15509	3.0	3152
241.15517	2.1	1621
241.21404	21.1	5389
241.99778	4.4	1508
242.01431	1.5	3771
242.09902	5.0	2181
242.12356	1.3	3063
242.15765	2.7	2951
242.15767	2.5	1839
242.15828	2.4	1778
242.92497	1.1	1954
243.05243	5.7	3715
243.13272	8.4	2940
243.13329	7.8	4055
243.13337	7.4	8574
244.00384	7.4	5145
244.11078	1.5	2284
244.13524	7.4	1411
244.15446	6.0	44539
244.95161	2.8	1427
245.07662	1.8	17882
245.09191	10.1	7979
245.09525	4.2	2820
245.14970	8.9	4418
245.15768	6.0	6866
245.16043	2.8	1679
245.16081	2.9	5065
245.95658	4.4	12531
246.16855	6.2	1467
246.16995	6.7	9963
246.16997	6.5	42362
246.95821	4.4	1453
246.96766	4.0	1206
247.05691	4.7	2583
247.05716	2.7	1443
247.05762	2.8	4278
247.05872	3.9	1793
247.09186	1.8	2465
247.10614	9.9	2700
247.10796	7.1	14615
247.12778	5.8	2961
247.12821	4.2	3289
247.14333	5.9	4881
247.17251	6.7	1606
247.17320	6.4	4860
247.95445	4.4	1656
248.06837	5.3	1148
248.09145	7.1	34316
248.09414	5.5	3099
248.11226	1.5	1575
248.14903	2.6	2081
248.14919	2.3	3088
248.16703	15.3	6570
248.88382	1.1	1489
248.95854	7.4	1239
249.07434	8.4	4082
249.09577	10.0	3715
249.09626	9.6	2338
250.05752	1.6	2606
250.91724	4.9	2005
250.93828	1.1	2346
251.05362	5.0	1372
251.12667	18.2	4393
253.14192	12.8	2410
254.13855	3.7	1218
254.14937	3.4	3531
254.16059	3.7	9107
254.81504	1.2	1114
255.07372	3.7	4487
255.07410	3.2	13306
255.09802	4.6	1767
255.13300	5.9	3116
255.13386	5.4	2681
255.23018	21.7	2654
255.97649	6.9	21024
256.05813	3.7	2247
256.06985	2.3	1751
256.07696	3.2	1611
256.11771	3.8	24444
256.13030	5.4	1820
256.26204	21.9	8303
256.81226	1.2	1052
256.97227	6.0	3305
256.97913	6.9	2431
257.11305	3.3	1961
257.12097	3.8	3699
257.14820	9.8	3466
257.14887	9.8	6492
257.22498	18.0	3094
257.22522	20.5	5296
257.97479	6.9	2841
258.01971	3.5	5212
258.01974	3.1	2712
258.07365	5.0	11903
258.10725	2.2	2730
258.89814	1.1	2267
259.07701	5.0	1366
259.09165	1.6	3463
259.16472	11.0	2759
259.22481	21.0	3497
260.14954	3.0	26498
260.95525	7.8	2595
261.14738	23.8	7891
261.15237	3.0	3117
262.03840	2.3	6136
262.12822	2.5	2203
262.12837	2.4	3145
262.12910	2.3	17090
262.16380	3.5	2656
262.16467	3.2	1627
262.16488	3.5	41040
263.10190	7.8	5562
263.13225	2.3	1204
263.16817	3.5	6006
264.02585	5.8	3902
264.93287	7.4	8882
264.98646	6.2	1673
265.05846	4.2	3147
265.11701	7.2	2769
265.11833	7.2	15387
265.11854	7.1	478482
266.10210	8.4	2860
266.12119	7.1	83929
266.93002	7.4	2104
267.07398	1.5	2450
267.10944	2.5	1472
267.10972	2.9	1354
267.11001	2.6	1805
267.11047	2.3	1453
267.11056	2.8	1826
267.11067	2.4	1473
267.12337	7.0	7004
267.13290	3.9	1609
267.13391	10.1	19079
268.13701	10.1	2469
268.94498	1.5	1368
268.94601	1.9	3724
268.94646	2.0	4811
269.08955	4.3	5089
269.12448	1.8	22288
269.92500	1.1	1519
270.10883	4.5	3099
270.12805	1.8	2557
270.13304	5.7	2068
271.07971	10.0	2548
271.09164	3.6	3585
271.16459	11.8	9990
271.20472	14.8	3914
271.26198	25.1	3964
271.97106	4.8	1414
271.97126	7.8	1828
272.07551	1.5	2194
272.18530	10.2	2327
272.18531	9.1	38096
273.18869	9.1	6049
273.20536	20.3	4222
274.11810	5.4	2799
274.14189	12.4	3140
274.16378	4.5	2917
274.16437	3.8	1680
274.17868	16.6	4709
274.18155	16.6	2798
274.20082	10.9	3229
274.20134	10.8	4691
274.20221	10.5	1819
274.87140	1.1	2496
275.25583	21.5	3560
276.14436	3.0	74431
276.17999	6.0	1413
276.18023	5.4	5582
277.09492	1.8	1077
277.10440	6.0	1541
277.14721	3.0	8272
277.26185	23.0	3686
278.06300	2.8	1556
278.14917	3.0	1204
278.17391	12.8	2896
279.09237	16.1	6354
279.13331	8.3	10368
279.15761	19.7	3579
279.15774	23.9	11943
279.15782	19.8	4096
279.15807	19.6	12328
279.15828	19.5	39794
279.19062	1.3	3187
279.27925	17.1	10691
280.13575	8.3	1775
280.15973	19.6	2755
280.16138	19.5	7665
280.92769	5.6	1825
281.00812	5.7	1980
281.08889	7.8	3714
281.08904	7.4	3512
281.11265	5.1	2358
281.11337	4.4	2464
281.14925	11.5	10488
281.20689	21.0	7243
282.12013	2.3	42532
282.14491	6.6	2015
282.15174	11.5	3513
282.19250	2.4	5253
282.20348	16.1	3479
282.27791	22.2	20508
282.90723	2.9	6621
282.90765	4.1	1631
283.03273	1.8	6453
283.04790	10.1	5631
283.05076	4.2	3755
283.10384	4.1	3646
283.10535	8.9	3107
283.12349	2.3	5125
283.12917	9.3	4479
283.13948	3.0	1858
283.26168	22.8	4282
283.28117	22.2	4393
284.09356	7.4	1357
284.18521	9.6	3432
284.29402	23.0	7344
284.29431	19.2	2404
284.92284	3.9	3713
285.04774	1.8	2010
285.09798	5.9	1763
285.22807	1.8	1940
285.24085	21.2	3092
286.09159	1.6	2174
286.12897	3.3	13504
286.20109	11.5	55054
286.20130	11.7	7542
286.20160	11.4	124362
286.92117	4.0	1064
286.92365	1.1	1215
287.05232	10.0	8214
287.05273	9.6	2514
287.09956	7.1	11277
287.09966	7.0	11613
287.09994	7.1	7203
287.13179	3.3	3614
287.17120	1.9	3050
287.19494	1.4	14605
287.20417	11.5	10215
287.20433	11.4	24817
287.24426	1.5	1154
288.11920	1.2	1912
288.12274	4.0	4049
288.14214	3.6	1306
288.18001	6.2	3331
288.20749	11.4	3860
288.21595	13.3	2642
288.21623	12.3	14571
288.21689	12.8	1966
289.03726	6.3	2958
289.11593	10.1	2751
289.21938	12.3	3019
289.92772	5.3	6323
290.04195	8.0	2377
290.14542	1.3	1681
290.15900	4.5	5566
290.15954	4.3	1999
290.15967	5.4	51024
290.15974	4.1	23749
290.15984	4.4	14640
290.20563	3.2	1611
291.08345	5.9	2288
291.12918	1.3	2267
291.16271	4.1	3877
291.16297	5.4	6796
291.16307	4.5	2722
292.10438	1.3	1552
292.15692	7.9	8643
292.15754	7.7	12462
292.22425	17.2	3545
292.96012	5.1	2503
293.03057	3.2	1477
293.05281	4.6	1754
293.08850	5.4	4316
293.08864	5.9	3131
293.13860	11.5	1530
293.15924	7.6	1795
294.28762	21.8	2886
294.28810	21.7	5003
294.28843	21.6	7181
294.28883	21.5	62741
295.08485	4.3	2164
295.10479	9.8	5252
295.29202	21.5	12322
295.97529	3.5	2970
296.06434	3.1	2713
296.14822	5.4	14816
296.14840	9.1	2899
296.14900	5.7	13426
296.14920	8.0	2143
297.14399	9.2	4626
297.15121	5.4	1921
297.15219	5.7	2480
297.17923	21.0	3290
297.27688	25.6	2613
297.27710	21.9	3473
298.11384	4.1	4190
298.17729	16.1	6717
299.22059	19.5	4804
299.27179	23.5	2874
299.99415	2.3	2535
300.10758	2.6	4335
300.11888	3.5	1963
300.17981	7.3	3106
300.21510	13.3	1967
300.21534	13.8	2731
300.21577	13.0	2491
300.21610	13.4	3912
300.21627	12.9	97792
300.21633	12.9	6493
300.22792	1.8	2746
300.86154	1.2	1294
300.91750	2.3	1716
301.05801	7.8	3905
301.13919	19.7	2808
301.13999	19.5	17795
301.14045	19.6	7995
301.20991	22.9	4213
301.21939	12.9	20695
302.08664	2.1	1904
302.12291	8.4	15434
302.14286	19.5	2631
302.15958	4.7	10213
302.19518	9.8	3645
302.19532	8.4	5923
302.19572	9.7	2618
302.19591	5.3	1662
302.22188	12.8	2734
302.23194	14.3	32663
302.23221	14.1	280302
302.23240	14.2	13822
303.07117	3.9	8199
303.07399	7.2	5621
303.07432	7.0	194786
303.09974	7.3	1677
303.12562	8.4	2452
303.16274	4.7	1528
303.23540	14.1	55148
303.23546	14.3	6778
303.25190	21.2	2584
304.05526	8.4	1978
304.07723	7.0	36625
304.12881	7.6	17795
304.17461	5.5	8782
304.17463	5.6	2156
304.17476	5.7	4173
304.21146	10.7	4864
304.21167	10.1	19067
304.22576	12.8	3076
304.23670	14.1	9250
304.23729	14.1	6053
304.25973	22.2	6132
304.29877	18.4	3531
304.29887	18.3	4849
305.07270	7.0	21931
305.08636	4.8	23632
305.08976	10.1	14573
305.13189	7.6	3697
305.17838	5.5	1681
305.21492	10.2	3484
306.06394	6.3	5464
306.08949	4.8	6794
306.16911	11.7	2622
307.06847	3.4	1876
307.06888	3.6	1541
307.07613	8.4	1210
307.08044	1.8	3278
307.12202	3.5	3072
307.16638	7.4	1090
307.20082	15.2	17988
308.18410	12.4	10624
308.18552	11.7	3904
308.20365	15.2	4566
309.03560	5.5	1970
309.04764	3.6	3457
309.11979	11.8	4719
309.12040	11.9	5884
309.18795	12.4	3018
309.20452	20.2	3433
309.20458	18.5	5174
310.07404	4.7	1806
310.09271	4.4	1523
310.11281	1.3	3000
310.14154	9.1	2295
310.19979	12.1	2523
310.20005	11.9	6280
310.20020	12.4	36082
310.20024	12.9	9293
310.20047	12.5	36447
310.20057	12.8	7550
310.20082	12.3	32417
310.20098	12.7	9565
310.20159	13.1	84307
310.30896	23.3	9007
311.06938	6.6	1858
311.14810	12.6	6015
311.14818	12.8	3804
311.16191	20.3	3649
311.20347	12.4	5268
311.20364	12.5	8961
311.20413	13.1	14598
311.20415	12.3	7010
311.25739	21.6	3331
312.13017	5.2	32649
312.21562	14.4	8211
312.21584	13.1	12788
312.21632	12.6	91698
312.21653	14.2	2569
312.21668	12.6	6928
312.28791	24.2	4295
312.92032	1.1	2480
313.06095	8.2	2646
313.13288	5.2	5348
313.21210	21.5	3245
313.21888	13.0	2512
313.21930	12.6	18711
313.27093	22.0	4545
313.27170	22.0	8054
313.27187	22.4	3988
313.27204	22.2	12075
313.27219	22.1	2862
313.27276	22.3	3086
314.10011	3.0	1900
314.22131	12.6	3073
314.22877	14.4	2258
314.23098	14.0	2987
314.23168	14.7	51523
314.23171	14.3	33144
314.23186	14.9	35600
314.23199	15.0	39508
314.23221	13.7	5849
314.23470	14.4	3586
314.27484	22.2	5087
314.30411	25.5	4517
315.17933	16.5	8974
315.23429	14.3	6599
315.23476	14.7	9992
315.23514	15.0	8998
315.23516	14.9	7580
315.25137	21.7	8452
316.17490	6.2	2372
316.17491	6.7	3902
316.17530	6.1	3180
316.18248	16.5	1854
316.21061	8.0	1696
316.21219	9.0	4978
316.24663	15.3	6799
316.24700	15.5	5546
316.24735	15.7	8073
316.82572	1.1	1456
316.86859	1.1	1291
317.08588	5.7	3897
317.11248	19.9	4024
317.11313	19.7	6218
317.11314	19.9	5182
317.11370	19.6	19892
317.11387	20.0	4025
317.11409	19.5	50241
317.18365	23.0	3423
317.26582	21.7	3221
318.11694	19.6	3957
318.11708	19.5	11454
318.19016	4.8	2553
318.19077	7.4	13172
318.19248	7.2	1791
319.06495	4.0	1281
319.06849	5.0	1861
319.06857	4.4	2937
319.10486	11.5	8367
319.11338	19.5	4591
319.16497	8.3	2373
319.16537	8.3	42193
319.19435	7.4	2549
319.28051	21.5	3846
320.16805	8.3	6287
320.23300	22.2	4571
321.00371	10.1	2416
321.05982	4.1	20858
321.08104	2.5	2251
321.08142	3.0	7393
321.08166	2.7	2060
321.08504	9.3	4564
321.20420	12.8	2935
322.01699	5.0	1158
322.06223	4.1	3759
322.07730	2.4	4038
322.08398	3.0	1189
322.83249	1.1	1332
323.05188	8.4	12564
323.09837	5.2	1563
324.05474	8.4	2599
324.05897	4.6	5926
324.15607	11.4	6443
324.15728	11.5	3300
324.19164	6.0	3520
324.21328	14.2	5906
324.21358	14.1	5684
325.00850	10.0	4099
325.05059	8.4	1210
325.15556	12.8	2002
325.27182	22.9	4061
326.08637	5.4	5086
326.08699	3.0	6515
326.11021	7.6	1470
326.14589	4.5	13757
326.19512	13.3	26453
326.37633	19.9	7997
326.99255	6.3	3093
327.06839	4.8	1770
327.08899	3.0	1434
327.14783	4.5	2587
327.15414	5.0	3336
327.19814	13.3	5670
327.20000	7.8	2240
327.24977	25.9	2659
327.25123	21.2	7442
328.02492	5.7	2096
328.09774	7.5	3950
328.13911	5.9	2357
328.17559	11.4	4375
328.21099	7.6	8080
328.21172	11.0	4098
328.21310	11.8	3073
328.24704	16.2	9260
328.24715	16.4	8212
328.24792	16.1	139805
328.89861	1.1	6102
329.10028	7.5	1273
329.16559	12.6	1910
329.18229	15.1	2633
329.21345	7.6	1551
329.24125	24.6	2819
329.24936	16.2	2985
329.25083	16.1	27939
329.26585	21.6	4387
329.89838	1.1	1532
330.05922	3.6	2119
330.16646	6.5	1696
330.18073	17.2	2776
330.19053	7.9	11647
330.19095	8.3	3579
330.22601	12.8	2384
330.22603	13.0	5153
330.22660	11.9	4963
330.22664	12.5	38960
330.22699	8.0	2788
330.22711	13.7	5603
330.22721	9.6	2969
330.22723	9.7	3018
330.22753	10.7	12539
330.25446	16.1	2537
330.26385	16.9	2451
330.93079	1.1	3027
331.13632	2.7	2822
331.19299	7.9	3873
331.22921	12.5	6935
331.23041	10.7	2262
331.28192	22.0	5072
331.28284	22.2	34235
331.28346	22.2	5955
332.09622	1.3	1664
332.13316	5.2	2066
332.18197	13.1	2327
332.20600	8.9	5861
332.20629	9.1	4780
332.24173	12.2	4977
332.24177	11.0	3076
332.24183	14.0	3435
332.28536	22.2	7733
332.32876	19.7	3063
332.32984	19.6	9680
333.33412	19.6	2492
334.18520	4.6	1434
334.18586	5.0	4101
334.19772	12.6	1989
335.09988	8.3	8305
335.10031	9.2	3345
335.10997	6.9	3010
335.15932	8.0	5737
336.06987	4.1	8968
336.07014	4.4	1317
336.10225	8.3	2057
336.14422	9.4	4581
336.21553	14.1	10769
337.06351	2.2	16796
337.09900	8.3	1492
337.14556	9.4	1477
337.17524	8.0	15552
337.22046	14.1	2242
337.94966	2.3	1719
338.08636	7.4	2178
338.14468	6.4	1921
338.17174	12.8	4367
338.17791	8.0	4589
338.20616	7.0	5023
338.23102	15.0	5851
338.23157	15.1	6755
338.33986	25.0	12081
338.34030	24.9	111842
338.79842	1.1	1221
338.81309	1.2	1097
338.88273	1.1	1227
339.01320	7.8	1530
339.06892	5.6	2797
339.19133	8.5	2636
339.21294	19.5	4050
339.34199	25.1	3659
339.34360	24.9	30431
339.34438	25.0	5874
340.10195	8.1	2542
340.10202	5.7	1656
340.10464	5.4	2176
340.17492	7.3	4249
340.18744	14.1	10945
340.18753	14.2	10565
340.34645	24.9	3656
340.35517	24.3	5627
341.02676	3.9	10371
341.02992	7.0	14681
341.16974	7.5	5447
341.20693	21.2	4524
341.30293	23.4	8213
342.02934	3.9	1740
342.03151	7.0	2270
342.08467	7.6	12132
342.16714	10.1	2996
342.17214	14.7	6578
342.22718	10.1	18600
342.22729	10.3	4619
342.26262	17.3	9559
342.26281	17.2	3332
343.04205	4.8	28654
343.04655	10.1	2659
343.08775	7.6	3365
343.11188	5.4	1490
343.12376	1.3	1664
343.22306	10.6	3471
343.23114	10.1	3888
343.28035	21.4	2610
343.28236	22.9	7942
343.29411	18.6	5376
344.04485	4.8	3227
344.08210	7.6	1595
344.13315	10.0	3651
344.20569	10.0	6247
344.20656	9.9	5377
344.22710	7.8	2422
344.23953	14.5	1499
344.24178	14.1	3261
344.24237	14.1	4888
344.24316	11.2	18621
344.25334	7.4	1183
344.87534	1.1	3396
345.04200	4.8	2018
345.15624	15.1	7025
345.24564	11.2	4163
345.29617	22.5	2891
345.29790	22.8	3532
346.12493	2.2	2629
346.22210	10.8	9543
346.22225	7.3	1975
346.22244	4.8	1604
346.22276	10.5	1819
346.25847	15.2	5208
346.90903	1.1	2996
347.15886	18.8	3923
347.16057	18.5	3281
347.16904	12.6	12905
347.16946	12.8	3575
348.06921	1.3	2873
348.12850	4.0	2660
348.15519	13.1	5293
348.15530	12.5	2435
348.17305	12.6	2755
348.30894	22.2	5477
348.94066	1.1	1787
349.08862	6.7	2211
349.26979	3.6	2325
350.08605	5.2	14968
350.17085	12.6	4259
350.21635	16.5	11137
350.22809	16.1	2412
350.31525	21.9	5170
350.93286	1.1	1605
351.08869	5.2	2727
351.22049	16.5	2672
351.22609	21.5	2820
352.08524	5.2	1660
352.24665	19.5	4703
352.86579	1.1	1288
353.04568	18.7	4030
353.26422	22.2	13225
353.26517	22.0	3144
354.09940	12.4	26349
354.15441	6.3	9047
354.17567	10.8	1921
354.26623	22.2	5540
354.28257	18.7	6789
354.29921	22.2	2964
355.04029	5.7	2247
355.10132	12.4	5411
355.11258	7.4	1622
355.15689	6.3	1673
355.17168	16.5	6761
355.18645	19.5	8798
355.28180	22.1	9844
356.24109	14.6	2960
356.24185	14.2	2673
356.24212	14.2	10550
356.24285	11.9	3393
356.24308	15.1	6474
356.27590	22.8	3162
356.27810	15.2	3280
356.28461	22.1	4742
357.04975	1.7	2451
357.05960	11.5	1700
357.10288	4.1	2462
357.12047	8.3	1397
357.12798	17.6	2475
357.22847	3.3	9106
357.29742	22.5	3848
357.29748	23.5	4575
358.13108	12.2	5269
358.14819	11.6	2721
358.14854	7.0	4086
358.22198	11.0	2387
358.23238	3.3	2849
358.25644	20.2	5375
358.25711	15.5	69159
358.36557	21.0	9794
359.03717	3.0	7945
359.07327	6.3	1383
359.25991	15.5	12084
359.31303	23.0	4016
359.31357	23.3	23863
359.36714	21.0	2693
360.03266	2.4	2412
360.26181	15.5	2494
360.31643	23.3	5731
360.32176	24.9	17470
360.32186	25.0	2681
361.00719	8.4	4276
361.19944	13.9	2211
361.32567	24.9	6790
362.18007	13.8	3137
362.21024	21.3	2240
362.88604	1.1	2170
364.04199	5.4	6896
364.04216	3.0	1453
364.19488	12.8	5631
364.19528	15.7	2685
364.19540	12.6	11358
364.19719	9.5	2389
364.91822	1.1	2596
364.94922	6.3	3053
365.04318	5.4	1192
365.06247	10.0	2885
365.10490	1.3	1783
365.15589	7.8	4847
365.17427	2.8	8135
365.18986	13.3	5332
365.19778	12.6	2816
365.23071	14.3	3818
365.23090	15.0	5879
366.17581	2.8	2058
366.20274	16.1	4817
366.23751	7.1	5459
366.23771	7.0	10843
366.91008	1.1	3324
367.14976	3.8	8169
367.24296	21.2	4479
367.27962	22.8	3080
368.15395	3.8	1676
368.21710	21.2	5738
368.21724	21.0	6763
368.94151	1.1	1311
369.05706	4.0	1636
369.12105	8.9	1644
369.12838	7.9	15622
369.14995	12.6	3050
369.22229	21.0	2313
369.23775	22.2	12008
370.13015	7.9	2270
371.09485	7.8	1693
371.14592	16.5	15831
371.31133	24.5	3041
371.31241	24.3	7612
371.31343	24.0	34234
371.31374	24.1	8285
372.14977	16.5	2561
372.23797	11.0	1574
372.31620	24.0	9413
372.34510	20.5	3210
373.05491	8.3	1721
374.12664	8.9	4912
374.25188	12.4	3605
374.25207	12.8	1887
374.94115	1.1	1551
375.01997	2.2	2366
375.21108	18.7	4641
376.04212	7.4	3595
376.26840	11.9	2036
376.29536	24.9	18989
376.34006	23.3	9684
377.14494	8.8	4509
377.29886	24.9	5363
377.32275	21.9	3508
377.32337	21.8	2922
377.32425	21.8	2918
378.05849	5.4	1729
378.21101	16.1	2475
378.98298	3.9	2410
379.07493	11.6	2177
379.13614	7.7	2053
379.18594	20.2	4252
379.21044	12.7	2704
379.23560	21.3	3629
379.28089	22.4	2926
380.03864	7.6	2522
380.11477	13.8	5100
380.27767	19.6	7046
380.27776	19.5	14219
380.33466	21.5	4643
380.89624	1.1	1545
380.99725	4.8	5948
381.07853	1.3	2763
381.18481	7.8	2552
381.18582	7.5	3397
381.24766	18.6	4022
381.28163	19.5	4643
381.29514	23.3	8831
383.03687	4.9	2922
383.10840	13.8	2292
383.21730	21.2	5916
384.11440	5.3	5772
385.12441	12.8	4833
385.12473	12.6	15504
385.12500	15.1	2668
385.17292	23.0	2490
385.32804	25.0	6961
386.12795	12.6	3268
386.33945	22.5	4060
386.39705	22.5	3862
387.19992	12.1	3522
387.20118	12.2	3080
388.12363	7.7	3187
388.25331	8.5	4072
388.33922	24.0	3675
389.08564	11.0	3845
389.17587	13.2	2849
389.17870	12.4	5197
390.05792	7.9	9299
390.13775	6.9	2247
391.26195	7.5	1477
391.26255	7.4	1585
391.28005	24.4	3678
391.28037	24.2	6949
391.28099	24.1	6951
391.28106	24.3	3545
391.28136	23.9	24455
391.28253	23.9	195079
392.05499	12.4	7397
392.15582	9.7	2383
392.22534	16.7	10484
392.28490	24.0	3375
392.28571	23.9	48046
392.36207	23.0	8285
393.28856	23.9	8933
393.29455	24.0	9462
393.36395	23.0	3237
394.16873	7.2	2363
394.29498	24.0	4033
394.34986	21.8	5644
394.37503	19.7	3249
395.25429	22.4	2956
395.27428	22.1	4763
396.08656	12.2	2451
396.21163	15.5	4312
396.99298	3.0	1980
397.18054	16.7	3386
397.26915	23.3	10655
397.32914	25.7	23895
398.22451	19.0	2865
398.33246	25.7	5218
398.90769	1.1	1915
399.14066	16.0	3727
399.17611	19.8	3234
399.32182	23.9	3654
399.35505	21.3	3673
400.16476	21.3	3914
400.26785	12.4	5619
400.37620	21.3	8766
400.37699	21.4	3115
401.17880	8.2	1669
401.33880	24.9	7675
401.37953	21.4	2485
401.99703	5.4	1665
402.13877	6.3	1240
402.15957	3.1	1586
402.28313	13.5	5981
402.28315	15.4	6295
405.10355	3.8	2443
405.26167	17.2	2174
406.11333	11.0	1608
406.20530	12.0	1876
406.20555	13.2	3769
407.18972	12.4	9032
407.22080	8.8	1728
408.13189	11.4	2453
408.36418	22.6	2537
408.36507	22.2	3503
408.36855	22.4	2660
409.05229	7.7	3124
409.10173	16.5	3383
409.18292	8.5	5491
409.26890	24.0	18212
410.27236	24.0	4000
411.08826	7.4	2250
411.19680	14.8	2531
411.24839	22.1	5938
411.42858	24.9	2624
412.08276	8.9	2524
413.12352	4.6	2256
413.15516	16.7	10605
413.26321	24.1	3430
413.26398	23.8	41202
413.26438	24.1	4519
413.35865	24.6	4953
414.15957	16.7	3140
414.19781	19.0	3302
414.26727	23.9	11124
414.31909	22.1	4104
414.42868	23.5	3926
414.99306	4.4	2260
416.15340	6.9	1660
416.21151	8.3	1747
416.31310	17.9	5052
416.35088	13.5	7900
416.91416	1.1	2337
417.19708	1.5	2367
417.20998	14.3	3474
417.33299	23.9	4414
417.35571	13.5	2181
419.05975	6.9	2881
419.31264	25.7	12439
419.31665	25.8	4504
420.18533	11.7	2240
420.31445	25.3	3496
420.31460	25.4	3721
420.31539	25.6	4758
420.31631	25.5	4918
420.32888	21.7	4208
422.77584	1.2	1327
423.07987	12.6	2965
423.15997	8.4	1964
424.21580	12.4	9291
424.26132	21.8	3437
424.30418	17.6	7677
424.36027	21.5	6274
424.36059	21.4	4133
424.36096	21.3	3253
426.19183	14.6	2654
426.31915	19.4	8977
427.06477	20.0	4491
427.13398	13.2	3220
427.16987	11.5	1522
427.37414	24.1	3068
427.37469	24.3	9080
427.38704	22.3	6650
428.11447	7.4	7908
428.11588	7.5	1621
428.42606	23.0	2911
429.11640	7.4	1324
429.23332	24.3	3233
429.23413	24.2	4009
429.23652	24.0	7936
429.23653	24.2	5060
429.23798	23.9	88132
430.01183	12.4	4308
430.24116	23.9	33566
430.24182	24.0	3364
431.23901	23.8	7860
431.24130	17.3	18146
431.38048	21.0	2733
431.38253	21.2	3257
432.01750	7.4	2333
432.24557	17.3	5890
432.27978	9.2	3716
432.30926	17.7	7249
432.34632	13.6	4826
433.23648	11.0	4837
433.25588	18.0	2540
434.04215	12.2	1751
434.14348	3.6	2127
435.03384	6.9	12239
435.22042	14.3	7245
435.28381	25.7	10758
436.03712	6.9	2304
436.28619	25.7	3501
436.97451	4.4	1582
438.23350	11.0	2563
438.37595	21.9	9033
439.46026	24.9	7084
441.29240	25.5	2929
441.29411	25.5	3603
441.29572	25.3	2811
441.29619	25.3	2936
441.39171	25.8	5132
442.87791	1.1	4469
443.16558	15.4	2745
444.30800	12.8	2700
444.40197	24.0	4372
445.08268	14.8	4056
445.14459	12.4	10829
445.16873	16.3	6293
446.16347	11.7	2375
447.22020	13.1	2328
447.23410	14.6	3064
447.34390	21.7	5138
447.34454	22.2	21285
447.34569	21.8	3711
448.30380	17.8	34567
448.34839	22.2	8044
449.04369	7.4	5842
449.25152	17.3	10926
449.30678	17.8	9865
450.04904	7.4	1330
451.42268	24.9	7758
452.18965	12.3	3839
452.18988	11.6	3485
452.24806	14.3	3124
452.38777	22.6	3669
452.39247	22.4	2926
452.39294	22.2	5282
452.94597	7.4	1892
452.94919	4.4	5112
453.20910	9.1	4014
453.95244	4.4	1062
454.20588	12.3	24901
454.20589	12.8	18815
455.20926	12.3	5074
455.20984	12.8	4938
455.40570	24.1	4488
457.01481	6.9	3553
457.26717	25.1	3800
457.26843	25.5	7689
457.26854	25.3	6631
457.26914	25.2	6262
458.20035	12.4	17246
458.20076	12.5	3809
458.85568	1.1	3591
459.20352	12.4	4028
460.88896	1.1	1947
462.19596	15.9	7646
462.19671	16.3	4878
463.32914	21.3	2270
464.18985	12.9	19218
464.18990	12.2	8788
464.37022	23.8	17882
464.48950	21.5	3653
465.19328	12.9	6091
465.19419	13.0	4199
465.24576	14.6	2682
465.37304	23.9	3096
465.37384	23.8	9023
465.39292	21.2	3105
466.19399	16.6	1839
467.25927	17.3	3250
468.21943	12.6	4207
468.29264	20.5	26356
468.38560	21.6	4239
468.38622	21.4	6404
468.38781	21.3	3994
469.29610	20.5	6555
469.32578	22.3	6128
469.32631	22.2	7823
469.97302	7.4	4072
470.28454	17.8	5179
472.21610	13.3	8450
472.43204	24.0	9040
472.99009	6.9	14649
473.17615	14.3	6983
473.21764	13.3	2681
473.24760	20.5	10749
473.39351	25.3	3933
473.39551	25.2	6870
473.39853	25.3	3141
473.45484	22.2	10278
473.99170	6.9	2632
474.25137	20.5	2975
474.45020	22.0	5062
474.45513	22.2	3796
474.83058	1.1	1426
474.98715	6.9	2367
475.24636	13.5	5072
476.30586	9.7	3260
476.31859	21.0	11682
476.86741	1.1	2446
477.31957	21.0	3561
479.12882	12.4	5883
480.27839	16.5	2555
481.27760	21.0	4131
482.27277	16.5	4595
482.40123	21.9	10336
483.12425	16.3	4948
483.12504	15.9	3310
484.28835	18.3	2760
484.28892	17.0	90058
484.28896	17.3	87013
485.29198	17.0	25694
485.29248	17.3	31096
485.29891	21.7	3233
485.30030	22.2	11279
486.25837	17.8	6799
486.29340	17.3	5484
486.29815	17.0	5787
486.30395	22.3	4525
488.39062	25.9	27536
488.39118	25.4	13157
489.22150	20.5	9993
489.24342	17.0	9239
489.24391	17.3	11228
489.39356	25.9	7571
489.39463	25.4	6170
489.39521	25.5	3033
490.24778	17.3	5881
490.41829	25.5	3700
490.41953	25.0	3699
490.42206	25.2	11296
490.42215	25.4	8422
490.90235	7.4	5328
491.42480	25.2	3816
491.42553	25.4	3813
491.42588	25.4	4133
491.42613	25.3	3130
492.16140	12.8	5149
492.16213	12.3	7073
492.39891	24.0	3817
492.40122	23.9	9192
492.40162	24.0	6996
492.40172	23.9	47989
492.43778	23.4	6909
492.43870	23.5	4639
492.89984	7.4	1843
493.14492	13.3	3958
493.34592	25.4	5619
493.34594	25.9	6774
493.40490	23.9	13459
494.40630	23.9	3304
496.41640	22.4	4266
496.41771	22.2	4125
497.23431	9.7	3686
497.23622	12.8	20765
497.24826	21.0	12760
498.23930	12.8	6392
498.26609	14.4	2481
498.26645	15.4	3781
498.26743	14.5	8197
498.44774	25.6	8081
500.24587	15.5	2774
500.28307	14.6	25679
500.28321	14.3	10036
500.28375	10.8	1675
501.28570	14.6	6609
501.28646	14.3	3084
502.14507	12.9	4377
503.33099	21.8	2922
504.20643	11.8	3831
504.20653	11.5	17500
505.08988	2.2	3259
505.20366	12.6	6136
505.21029	11.5	3718
505.21769	17.0	18048
505.21781	17.3	27403
505.23765	14.6	2853
506.22061	17.0	5275
506.22208	17.3	8176
507.21731	17.3	3804
509.31967	25.9	18224
509.31990	25.4	8643
510.32299	25.9	6874
510.32442	25.4	3042
512.41234	21.6	3536
512.41266	21.4	3976
513.29582	16.7	4718
513.36692	23.4	5182
513.36706	23.5	2613
514.26136	10.4	4060
514.26214	12.8	22163
514.26309	11.4	6273
514.26429	10.3	3513
514.33418	18.5	13610
515.26608	12.8	5780
515.33761	18.5	4274
516.42117	23.3	5314
516.42301	23.1	30088
517.42660	23.2	6999
519.19617	14.6	2465
520.33225	10.2	3063
520.34439	20.4	8957
520.43011	25.5	5417
520.43151	25.4	3052
520.43205	25.2	4646
520.43214	25.3	4242
521.21195	14.6	8217
521.37799	23.1	5864
525.13639	11.5	6875
525.29911	20.4	5892
526.24533	14.3	2864
526.30832	22.0	4066
526.34698	23.9	4717
526.42789	21.8	9443
526.85125	2.8	2229
527.19964	17.3	2736
528.29862	11.9	1355
528.31287	17.9	3509
528.31404	14.8	3421
529.22772	7.1	10787
530.29390	15.2	8264
530.32856	18.0	4010
535.19179	12.8	13713
536.19478	12.8	3275
537.35199	23.2	15530
538.35590	23.2	6203
540.44293	22.3	3264
540.44327	22.2	4935
540.89107	5.3	1270
541.26074	14.3	3294
541.26247	15.0	24889
541.27478	20.4	12643
542.26564	15.0	7967
542.27682	20.4	4280
543.16257	12.6	3280
543.17109	17.3	3637
543.26839	15.0	2636
543.27581	13.9	2924
543.27756	14.8	13338
544.28193	14.8	3772
544.30672	14.5	3549
544.45016	22.1	3735
544.45265	21.9	8437
545.45604	21.9	3321
545.45726	22.0	2925
547.39673	25.8	3603
548.32174	21.6	7335
548.46376	22.3	7862
548.82349	21.6	3538
549.46882	22.2	3309
551.21012	7.0	6883
551.21084	7.1	8880
551.25819	18.0	5409
553.29116	17.0	6997
554.06786	7.4	1493
555.30601	17.8	8313
556.30900	17.8	2998
556.43783	21.4	4763
556.43856	21.3	3642
558.23482	4.4	1172
558.28847	14.3	35992
558.28902	15.0	12696
559.29237	15.0	3734
559.29240	14.3	8447
560.30445	14.0	19420
560.30473	13.9	7538
560.30478	15.0	31981
560.30493	14.1	5022
560.30509	14.1	5761
561.30723	15.0	9604
561.30726	14.1	6291
563.24341	15.0	4283
564.29723	17.7	2903
564.29973	18.0	3075
564.35791	10.6	1760
565.38042	22.0	4055
565.38368	22.0	4756
565.38420	22.1	3048
567.18443	7.1	46356
568.18610	7.0	9250
568.18693	7.1	11687
570.30593	14.3	4860
570.45347	21.9	6416
572.48344	25.9	4338
572.48456	25.4	5317
574.42672	24.1	12672
575.42922	24.1	5066
579.21731	14.3	10582
579.21775	15.0	9767
579.28749	19.5	4128
579.38106	24.1	4269
580.22097	14.3	2716
581.23276	15.0	9235
581.23282	14.1	7147
581.23325	13.9	2959
582.23717	15.0	3481
595.34519	17.8	2707
595.34625	13.6	3106
595.35534	24.1	6320
597.36206	18.3	5922
600.46491	21.4	3065
600.46625	21.3	3414
600.51558	23.2	6702
602.29714	13.4	6979
603.30085	13.4	2762
605.13868	7.1	11595
608.32267	17.3	3534
614.47925	21.9	5332
614.47960	21.8	4814
619.35305	22.2	6151
628.19051	22.4	4843
629.25313	17.3	4883
632.39819	18.1	2614
633.15313	7.4	1468
641.36519	21.8	8642
641.86630	21.8	7245
651.55952	24.6	4709
654.08399	7.4	1765
658.50453	21.8	3673
658.50757	21.9	2850
658.52002	25.4	4453
658.52358	25.5	3344
662.40805	21.4	13696
663.40807	21.4	5792
663.44569	22.7	4488
663.44764	22.6	3808
663.44788	22.6	3819
663.44838	22.6	5938
665.57735	22.0	10740
666.57881	22.0	3504
666.58038	22.1	4751
667.35846	21.4	3607
672.17354	1.3	1552
675.01361	7.4	1298
675.67102	24.9	12078
676.67373	24.9	6477
683.33535	21.4	7723
684.33791	21.4	4075
686.54722	24.7	3709
686.54791	24.5	3513
686.55003	24.8	3088
706.43344	20.9	9839
707.43540	20.9	3359
708.52821	24.5	3218
710.20073	21.7	7733
711.38881	20.9	3660
712.39540	22.4	6876
712.89780	22.4	3195
716.87361	7.4	1252
727.36144	20.9	9663
728.36681	20.9	3504
734.40956	22.0	7394
734.91107	22.0	5763
760.51261	24.3	7291
781.44178	24.3	4414
794.41195	18.5	2425
794.55452	25.3	2982
794.55587	25.1	33482
795.55967	25.2	18093
796.56289	25.1	3853
796.56559	25.2	3841
798.58118	23.8	4914
799.51037	25.2	6378
803.53675	23.9	13417
804.53843	23.8	8974
815.33928	18.5	4107
815.48553	25.2	4807
819.51009	23.8	14538
820.51309	23.8	7797
821.51405	23.9	3596
827.45417	22.1	5566
827.95431	22.1	4789
828.45434	22.1	3226
848.49231	21.7	5866
849.49485	21.7	3161
869.41997	21.7	3981
892.51932	21.3	7827
893.52356	21.3	2942
913.44848	21.3	3667
914.45617	21.3	2875
